SpectraSuite Data File
++++++++++++++++++++++++++++++++++++
Date: Wed Jan 02 14:03:07 EST 2013
User: James
Dark Spectrum Present: No
Reference Spectrum Present: No
Number of Sampled Component Spectra: 1
Spectrometers: USB4C01400
Integration Time (usec): 100000 (USB4C01400)
Spectra Averaged: 1 (USB4C01400)
Boxcar Smoothing: 0 (USB4C01400)
Correct for Electrical Dark: No (USB4C01400)
Strobe/Lamp Enabled: No (USB4C01400)
Correct for Detector Non-linearity: No (USB4C01400)
Correct for Stray Light: No (USB4C01400)
Number of Pixels in Processed Spectrum: 3648
>>>>>Begin Processed Spectral Data<<<<<
345.93	1189.87
346.15	1189.87
346.36	1189.87
346.58	1159.15
346.79	1134.57
347.01	1370.09
347.22	1341.42
347.44	1339.37
347.65	1292.27
347.87	1241.07
348.08	1302.51
348.30	1261.55
348.51	1228.78
348.73	1363.95
348.94	1279.98
349.16	1333.23
349.37	1306.60
349.58	1253.36
349.80	1486.83
350.01	1435.63
350.23	1435.63
350.44	1386.47
350.66	1413.10
350.87	1435.63
351.09	1474.54
351.30	1404.91
351.52	1345.52
351.73	1404.91
351.95	1464.30
352.16	1415.15
352.38	1507.30
352.59	1468.39
352.80	1314.80
353.02	1421.29
353.23	1470.44
353.45	1464.30
353.66	1517.54
353.88	1458.15
354.09	1515.50
354.31	1464.30
354.52	1409.00
354.73	1564.65
354.95	1415.15
355.16	1540.07
355.38	1482.73
355.59	1470.44
355.81	1507.30
356.02	1421.29
356.24	1421.29
356.45	1429.48
356.66	1421.29
356.88	1538.02
357.09	1495.02
357.31	1456.11
357.52	1415.15
357.74	1372.14
357.95	1439.72
358.17	1478.63
358.38	1406.95
358.59	1515.50
358.81	1492.97
359.02	1406.95
359.24	1445.87
359.45	1431.53
359.66	1454.06
359.88	1333.23
360.09	1472.49
360.31	1384.43
360.52	1476.59
360.74	1425.39
360.95	1550.31
361.16	1501.16
361.38	1462.25
361.59	1423.34
361.81	1466.35
362.02	1476.59
362.23	1447.91
362.45	1394.67
362.66	1400.81
362.88	1456.11
363.09	1435.63
363.31	1384.43
363.52	1417.19
363.73	1456.11
363.95	1441.77
364.16	1570.79
364.38	1468.39
364.59	1400.81
364.80	1464.30
365.02	1456.11
365.23	1447.91
365.45	1384.43
365.66	1515.50
365.87	1445.87
366.09	1548.26
366.30	1490.92
366.51	1486.83
366.73	1482.73
366.94	1460.20
367.16	1406.95
367.37	1505.26
367.58	1466.35
367.80	1447.91
368.01	1433.58
368.23	1474.54
368.44	1529.83
368.65	1511.40
368.87	1509.35
369.08	1490.92
369.29	1499.11
369.51	1538.02
369.72	1564.65
369.94	1488.87
370.15	1447.91
370.36	1511.40
370.58	1546.22
370.79	1509.35
371.00	1470.44
371.22	1429.48
371.43	1445.87
371.64	1474.54
371.86	1456.11
372.07	1490.92
372.29	1462.25
372.50	1619.94
372.71	1456.11
372.93	1435.63
373.14	1398.76
373.35	1490.92
373.57	1564.65
373.78	1437.67
373.99	1411.05
374.21	1462.25
374.42	1480.68
374.63	1484.78
374.85	1437.67
375.06	1437.67
375.27	1454.06
375.49	1464.30
375.70	1527.78
375.91	1486.83
376.13	1384.43
376.34	1583.08
376.55	1501.16
376.77	1472.49
376.98	1456.11
377.19	1515.50
377.41	1458.15
377.62	1521.64
377.83	1439.72
378.05	1507.30
378.26	1587.18
378.47	1474.54
378.69	1470.44
378.90	1470.44
379.11	1462.25
379.33	1521.64
379.54	1540.07
379.75	1578.98
379.97	1482.73
380.18	1597.42
380.39	1476.59
380.61	1540.07
380.82	1435.63
381.03	1507.30
381.25	1527.78
381.46	1552.36
381.67	1523.69
381.89	1486.83
382.10	1505.26
382.31	1550.31
382.52	1472.49
382.74	1490.92
382.95	1521.64
383.16	1525.74
383.38	1578.98
383.59	1566.70
383.80	1550.31
384.02	1460.20
384.23	1589.22
384.44	1513.45
384.65	1458.15
384.87	1540.07
385.08	1478.63
385.29	1439.72
385.51	1521.64
385.72	1509.35
385.93	1523.69
386.14	1495.02
386.36	1585.13
386.57	1517.54
386.78	1558.50
387.00	1578.98
387.21	1523.69
387.42	1581.03
387.63	1554.41
387.85	1572.84
388.06	1478.63
388.27	1601.51
388.49	1558.50
388.70	1499.11
388.91	1501.16
389.12	1542.12
389.34	1607.66
389.55	1589.22
389.76	1589.22
389.97	1603.56
390.19	1581.03
390.40	1638.38
390.61	1617.90
390.82	1538.02
391.04	1583.08
391.25	1654.76
391.46	1728.49
391.68	1613.80
391.89	1607.66
392.10	1611.75
392.31	1621.99
392.53	1585.13
392.74	1652.71
392.95	1738.73
393.16	1652.71
393.38	1593.32
393.59	1562.60
393.80	1626.09
394.01	1611.75
394.23	1726.44
394.44	1658.85
394.65	1630.18
394.86	1665.00
395.07	1638.38
395.29	1781.73
395.50	1701.86
395.71	1777.64
395.92	1726.44
396.14	1667.05
396.35	1726.44
396.56	1671.14
396.77	1806.31
396.99	1720.29
397.20	1683.43
397.41	1802.21
397.62	1873.89
397.83	1826.79
398.05	1794.02
398.26	1787.88
398.47	1814.50
398.68	1830.88
398.90	1818.60
399.11	1757.16
399.32	1865.70
399.53	1855.46
399.74	1896.42
399.96	1777.64
400.17	1996.77
400.38	1982.43
400.59	1916.90
400.81	1837.03
401.02	1957.86
401.23	1923.04
401.44	2066.40
401.65	1964.00
401.87	1996.77
402.08	2097.12
402.29	2037.73
402.50	2074.59
402.71	2037.73
402.93	2035.68
403.14	2105.31
403.35	2146.27
403.56	2252.77
403.77	2060.26
403.99	2207.71
404.20	2279.39
404.41	2303.96
404.62	2346.97
404.83	2236.38
405.04	2222.05
405.26	2318.30
405.47	2400.22
405.68	2400.22
405.89	2406.36
406.10	2361.31
406.32	2392.03
406.53	2465.75
406.74	2568.15
406.95	2310.11
407.16	2533.34
407.37	2523.10
407.59	2576.34
407.80	2613.21
408.01	2635.74
408.22	2660.31
408.43	2590.68
408.64	2627.54
408.86	2709.46
409.07	2764.76
409.28	2668.50
409.49	2766.81
409.70	2832.34
409.91	2781.14
410.13	2877.40
410.34	2703.32
410.55	2893.78
410.76	2809.81
410.97	2887.64
411.18	2885.59
411.40	2932.69
411.61	2932.69
411.82	3008.47
412.03	3014.61
412.24	2867.16
412.45	2883.54
412.66	3014.61
412.88	3121.10
413.09	3106.77
413.30	3123.15
413.51	3168.21
413.72	3053.52
413.93	3215.31
414.14	3200.98
414.36	3184.59
414.57	3024.85
414.78	3162.06
414.99	3373.00
415.20	3121.10
415.41	3323.85
415.62	3225.55
415.83	3403.72
416.05	3352.52
416.26	3237.84
416.47	3323.85
416.68	3364.81
416.89	3344.33
417.10	3440.59
417.31	3291.09
417.52	3416.01
417.74	3258.32
417.95	3401.68
418.16	3504.07
418.37	3420.11
418.58	3563.47
418.79	3508.17
419.00	3467.21
419.21	3502.03
419.42	3547.08
419.64	3530.70
419.85	3491.79
420.06	3622.86
420.27	3684.30
420.48	3629.00
420.69	3649.48
420.90	3663.82
421.11	3741.64
421.32	3733.45
421.53	3641.29
421.75	3823.56
421.96	3860.42
422.17	3788.74
422.38	3903.43
422.59	3825.61
422.80	3915.72
423.01	3897.28
423.22	3995.59
423.43	3932.10
423.64	3921.86
423.85	3993.54
424.07	3913.67
424.28	4143.04
424.49	3944.39
424.70	4134.85
424.91	4087.75
425.12	4108.23
425.33	4087.75
425.54	4044.74
425.75	4184.00
425.96	4087.75
426.17	4014.02
426.38	4360.13
426.59	4319.17
426.81	4335.55
427.02	4220.86
427.23	4140.99
427.44	4171.71
427.65	4229.06
427.86	4255.68
428.07	4386.75
428.28	4335.55
428.49	4509.63
428.70	4638.65
428.91	4372.41
429.12	4603.83
429.33	4480.96
429.54	4569.02
429.75	4663.22
429.96	4528.06
430.17	4736.95
430.38	4747.19
430.60	4489.15
430.81	4657.08
431.02	4749.24
431.23	4806.58
431.44	4616.12
431.65	4648.89
431.86	4857.78
432.07	4937.65
432.28	4833.21
432.49	4865.97
432.70	4904.89
432.91	4765.62
433.12	4837.30
433.33	5068.72
433.54	4935.60
433.75	4970.42
433.96	4892.60
434.17	4976.56
434.38	5140.40
434.59	5103.54
434.80	5242.80
435.01	5298.10
435.22	5121.97
435.43	4992.95
435.64	5294.00
435.85	5300.14
436.06	5466.03
436.27	5412.78
436.48	5216.18
436.69	5535.66
436.90	5377.97
437.11	5316.53
437.32	5601.19
437.53	5509.04
437.74	5611.43
437.95	5351.34
438.16	5619.63
438.37	5449.64
438.58	5644.20
438.79	5539.76
439.00	5466.03
439.21	5601.19
439.42	5685.16
439.63	5658.54
439.84	5730.22
440.05	5826.47
440.26	5939.11
440.47	5879.72
440.68	5990.31
440.89	5859.24
441.10	5820.33
441.31	5887.91
441.52	5756.84
441.73	5797.80
441.94	5924.77
442.15	6158.24
442.36	6016.93
442.57	6107.04
442.78	6100.90
442.99	6074.28
443.20	6088.61
443.41	5994.40
443.62	5926.82
443.83	6121.38
444.04	6086.56
444.25	6076.32
444.46	6170.53
444.67	6162.34
444.88	6166.43
445.09	6240.16
445.30	6168.48
445.51	6471.58
445.72	6096.80
445.93	6317.98
446.14	6299.55
446.35	6250.40
446.56	6287.26
446.77	6422.43
446.98	6373.28
447.19	6545.31
447.39	6379.42
447.60	6475.68
447.81	6623.13
448.02	6508.44
448.23	6526.88
448.44	6666.14
448.65	6619.04
448.86	6655.90
449.07	6504.35
449.28	6723.48
449.49	6563.74
449.70	6846.36
449.91	6563.74
450.12	6799.26
450.33	6627.23
450.54	6961.05
450.75	6651.80
450.95	6811.54
451.16	7159.70
451.37	6821.78
451.58	7141.27
451.79	6844.31
452.00	7004.05
452.21	7108.50
452.42	7008.15
452.63	6877.08
452.84	6961.05
453.05	6967.19
453.26	7217.04
453.47	7094.16
453.68	7298.96
453.88	7358.35
454.09	7251.86
454.30	7346.06
454.51	7395.22
454.72	7567.24
454.93	7542.67
455.14	7468.94
455.35	7514.00
455.56	7491.47
455.77	7614.35
455.98	7729.03
456.18	7823.24
456.39	7401.36
456.60	7694.22
456.81	7798.66
457.02	7692.17
457.23	8034.18
457.44	7802.76
457.65	7778.19
457.86	8073.09
458.06	7921.54
458.27	8060.80
458.48	7960.45
458.69	8126.34
458.90	8378.24
459.11	8218.50
459.32	8312.71
459.53	8060.80
459.74	8255.36
459.94	8468.35
460.15	8257.41
460.36	8773.50
460.57	8626.04
460.78	8695.68
460.99	8664.96
461.20	8544.13
461.41	9039.73
461.61	8560.51
461.82	8714.11
462.03	8693.63
462.24	9135.99
462.45	9086.84
462.66	8781.69
462.87	9092.98
463.08	9213.81
463.28	9101.17
463.49	9209.72
463.70	9103.22
463.91	9031.54
464.12	9564.01
464.33	9138.04
464.54	9414.51
464.74	9584.49
464.95	9690.99
465.16	9797.48
465.37	9615.21
465.58	9490.29
465.79	9908.07
465.99	10033.00
466.20	10024.81
466.41	10184.55
466.62	10237.80
466.83	9959.27
467.04	10239.84
467.25	10434.40
467.45	10377.06
467.66	10446.69
467.87	10577.76
468.08	10637.15
468.29	10563.42
468.50	10415.97
468.70	10843.99
468.91	10764.12
469.12	10757.98
469.33	10860.38
469.54	10651.49
469.75	11001.69
469.95	10862.43
470.16	11056.98
470.37	11208.53
470.58	11241.30
470.79	11044.70
470.99	10964.82
471.20	11269.97
471.41	10979.16
471.62	11652.94
471.83	11755.34
472.03	11853.64
472.24	11665.23
472.45	11503.44
472.66	11921.23
472.87	11898.70
473.08	11931.47
473.28	11765.58
473.49	11962.19
473.70	12040.01
473.91	12181.32
474.12	12392.26
474.32	12449.60
474.53	12349.25
474.74	12373.83
474.95	12523.33
475.16	12519.23
475.36	12853.05
475.57	12656.45
475.78	12736.32
475.99	13217.59
476.19	12855.10
476.40	13078.33
476.61	12943.16
476.82	13035.32
477.03	13371.19
477.23	13430.58
477.44	13113.14
477.65	13395.76
477.86	13557.55
478.06	13625.14
478.27	13487.92
478.48	13610.80
478.69	13729.58
478.90	13569.84
479.10	13690.67
479.31	14098.22
479.52	13754.16
479.73	14049.07
479.93	14360.36
480.14	14350.12
480.35	14151.46
480.56	14167.85
480.76	14272.29
480.97	14550.82
481.18	14921.50
481.39	14987.04
481.59	14841.63
481.80	14944.03
482.01	14933.79
482.22	15177.50
482.42	15013.66
482.63	15152.92
482.84	14966.56
483.05	15085.34
483.25	15441.68
483.46	15662.86
483.67	15787.79
483.88	16088.84
484.08	15718.16
484.29	15552.27
484.50	16305.93
484.71	15752.98
484.91	16236.30
485.12	16316.17
485.33	16430.85
485.54	16547.59
485.74	16422.66
485.95	16682.75
486.16	16705.28
486.37	16713.47
486.57	16615.17
486.78	16856.83
486.99	16953.09
487.19	17319.67
487.40	17405.69
487.61	17751.79
487.82	17551.09
488.02	17637.11
488.23	17751.79
488.44	17991.41
488.64	17866.48
488.85	17987.31
489.06	18337.51
489.27	18357.99
489.47	18607.84
489.68	18433.77
489.89	18888.42
490.09	18661.09
490.30	18892.51
490.51	19197.66
490.71	19128.03
490.92	18951.90
491.13	19447.51
491.34	19494.61
491.54	19754.71
491.75	19486.42
491.96	19775.19
492.16	19711.70
492.37	20039.37
492.58	20365.00
492.78	19922.64
492.99	20274.89
493.20	20428.49
493.40	20590.28
493.61	20731.59
493.82	20575.94
494.03	20664.00
494.23	20991.68
494.44	21358.27
494.65	21157.57
494.85	21143.23
495.06	21616.31
495.27	21223.10
495.47	21540.54
495.68	21685.94
495.89	21606.07
496.09	21939.89
496.30	21888.69
496.51	22204.08
496.71	22013.62
496.92	22511.27
497.13	22611.62
497.33	22623.91
497.54	22736.55
497.75	22443.69
497.95	22886.05
498.16	23195.29
498.37	23213.73
498.57	23178.91
498.78	23191.20
498.98	23787.16
499.19	23391.90
499.40	23418.52
499.60	23922.32
499.81	24043.15
500.02	23905.94
500.22	24139.41
500.43	24043.15
500.64	24098.45
500.84	24592.01
501.05	24530.57
501.26	24448.65
501.46	24796.81
501.67	24628.87
501.87	25220.74
502.08	24684.17
502.29	25122.43
502.49	25073.28
502.70	25245.31
502.91	25597.56
503.11	25161.34
503.32	25763.45
503.52	26054.26
503.73	25915.00
503.94	25591.42
504.14	25761.40
504.35	25925.24
504.56	26332.78
504.76	26207.86
504.97	26470.00
505.17	26353.26
505.38	26693.22
505.59	26717.80
505.79	26844.77
506.00	27113.06
506.20	26394.22
506.41	27027.04
506.62	27254.37
506.82	27225.70
507.03	27065.96
507.23	27293.28
507.44	27809.37
507.65	27594.33
507.85	27637.34
508.06	27614.81
508.26	27700.83
508.47	27598.43
508.68	28028.50
508.88	27858.52
509.09	27922.01
509.29	28257.87
509.50	28210.77
509.71	28440.14
509.91	28386.89
510.12	28302.93
510.32	28663.37
510.53	28689.99
510.73	28524.11
510.94	28663.37
511.15	28761.67
511.35	28915.27
511.56	29120.07
511.76	28753.48
511.97	28884.55
512.18	29257.28
512.38	29355.58
512.59	29328.96
512.79	29058.63
513.00	28954.18
513.20	29421.12
513.41	29513.28
513.61	29259.33
513.82	30195.25
514.03	29834.81
514.23	29261.38
514.44	29417.02
514.64	30125.62
514.85	29474.37
515.05	30506.54
515.26	29654.59
515.46	29933.11
515.67	29713.98
515.88	30307.89
516.08	30160.44
516.29	30191.16
516.49	30139.96
516.70	30367.28
516.90	30207.54
517.11	30479.92
517.31	30484.01
517.52	30258.74
517.72	30475.82
517.93	30539.31
518.14	30592.56
518.34	30686.76
518.55	30584.37
518.75	30852.65
518.96	31043.11
519.16	30805.55
519.37	30985.77
519.57	30893.61
519.78	31004.20
519.98	31084.07
520.19	31473.18
520.39	31176.23
520.60	31092.26
520.80	31225.38
521.01	31016.49
521.21	31227.43
521.42	31145.51
521.62	31426.08
521.83	31254.05
522.03	31342.11
522.24	31530.53
522.44	31882.78
522.65	31421.98
522.85	31802.91
523.06	31381.03
523.26	31700.51
523.47	31622.69
523.67	31831.58
523.88	31739.42
524.08	31718.94
524.29	31995.42
524.49	31876.63
524.70	32052.76
524.90	31772.19
525.11	32083.48
525.31	32456.21
525.52	32058.90
525.72	32499.22
525.93	32318.99
526.13	32323.09
526.34	32507.41
526.54	32517.65
526.75	32448.02
526.95	32882.19
527.16	32337.43
527.36	32593.42
527.57	32390.67
527.77	32904.71
527.98	33031.69
528.18	32935.43
528.39	33003.02
528.59	33080.84
528.79	33256.96
529.00	33326.60
529.20	33525.25
529.41	33324.55
529.61	33203.72
529.82	33277.44
530.02	33435.14
530.23	33818.11
530.43	33091.08
530.64	33629.69
530.84	33480.19
531.05	33760.76
531.25	34039.29
531.45	33920.51
531.66	33930.75
531.86	34201.08
532.07	34403.83
532.27	34160.12
532.48	34463.22
532.68	34070.01
532.89	34588.14
533.09	34479.60
533.29	35116.52
533.50	34969.07
533.70	34977.26
533.91	34895.34
534.11	35048.94
534.32	34868.72
534.52	35155.43
534.72	35073.51
534.93	35349.99
535.13	35352.04
535.34	35522.02
535.54	35790.30
535.75	36066.78
535.95	35788.25
536.15	36095.45
536.36	36025.82
536.56	36195.80
536.77	35915.23
536.97	36328.92
537.18	36160.98
537.38	36632.02
537.58	36677.07
537.79	37039.56
537.99	36867.53
538.20	36578.77
538.40	37049.80
538.60	37627.33
538.81	37205.45
539.01	37359.05
539.22	37658.05
539.42	37133.77
539.62	37909.95
539.83	38268.34
540.03	37924.29
540.24	38237.62
540.44	38405.56
540.64	38477.24
540.85	38335.93
541.05	38321.59
541.26	39130.54
541.46	38694.32
541.66	38618.55
541.87	38614.45
542.07	39093.68
542.27	38874.54
542.48	39138.73
542.68	39329.19
542.89	39370.15
543.09	39749.03
543.29	39525.80
543.50	39884.19
543.70	39591.33
543.90	40209.82
544.11	40248.73
544.31	39959.97
544.52	40373.66
544.72	40236.44
544.92	40455.57
545.13	40910.22
545.33	40662.42
545.53	40899.98
545.74	41252.23
545.94	41305.48
546.14	41491.85
546.35	41524.61
546.55	41772.42
546.76	41944.45
546.96	41543.05
547.16	41469.32
547.37	41745.80
547.57	42290.55
547.77	41782.66
547.98	42212.73
548.18	42700.15
548.38	41954.69
548.59	42427.77
548.79	42521.98
548.99	42630.52
549.20	42560.89
549.40	43306.35
549.60	43087.21
549.81	42923.38
550.01	42988.91
550.21	43009.39
550.42	42831.22
550.62	43242.86
550.82	43918.69
551.03	43490.66
551.23	43904.35
551.43	43554.15
551.64	43478.38
551.84	43603.30
552.04	44270.94
552.25	43908.45
552.45	44012.90
552.65	44199.26
552.86	44141.92
553.06	43830.63
553.26	44254.56
553.46	44610.90
553.67	44107.10
553.87	44594.52
554.07	44617.05
554.28	44096.86
554.48	44674.39
554.68	44901.71
554.89	44920.15
555.09	44715.35
555.29	44825.94
555.50	45024.59
555.70	44877.14
555.90	44991.83
556.10	45245.77
556.31	45059.41
556.51	45401.42
556.71	45856.07
556.92	45444.43
557.12	45059.41
557.32	45563.21
557.52	45194.57
557.73	45137.23
557.93	45251.92
558.13	45747.53
558.34	45755.72
558.54	45223.25
558.74	45565.26
558.94	45747.53
559.15	45993.28
559.35	45573.45
559.55	45827.40
559.75	46038.34
559.96	45841.73
560.16	46073.15
560.36	45735.24
560.56	45860.16
560.77	46124.35
560.97	46546.23
561.17	46179.65
561.38	45882.69
561.58	46148.93
561.78	46011.71
561.98	45890.88
562.19	46404.92
562.39	46085.44
562.59	46513.47
562.79	46310.72
563.00	45909.32
563.20	45790.53
563.40	46255.42
563.60	46249.28
563.81	46341.44
564.01	46138.69
564.21	46531.90
564.41	46179.65
564.61	46341.44
564.82	46206.27
565.02	46665.02
565.22	46386.49
565.42	46552.38
565.63	46624.06
565.83	46490.94
566.03	46390.59
566.23	46628.15
566.44	46243.13
566.64	46744.89
566.84	46765.37
567.04	46343.48
567.24	47004.98
567.45	46900.53
567.65	46595.38
567.85	46161.22
568.05	46548.28
568.26	46847.29
568.46	46652.73
568.66	46720.31
568.86	46665.02
569.06	46871.86
569.27	47021.36
569.47	46525.75
569.67	47140.14
569.87	46775.61
570.07	47269.17
570.28	46884.15
570.48	46996.79
570.68	46929.20
570.88	47113.52
571.08	46517.56
571.29	46818.61
571.49	47275.31
571.69	46968.12
571.89	47166.77
572.09	47516.97
572.30	47291.69
572.50	47334.70
572.70	47291.69
572.90	47363.37
573.10	47402.28
573.30	47385.90
573.51	47275.31
573.71	47035.70
573.91	47240.50
574.11	47533.35
574.31	47768.87
574.51	47283.50
574.72	47635.75
574.92	47666.47
575.12	47553.83
575.32	47951.14
575.52	47965.48
575.72	47901.99
575.93	48102.69
576.13	47994.15
576.33	47793.45
576.53	48127.27
576.73	47713.58
576.93	48057.63
577.14	48135.46
577.34	48143.65
577.54	47990.05
577.74	48117.03
577.94	48297.25
578.14	47656.23
578.35	48551.20
578.55	48448.80
578.75	48340.25
578.95	48424.22
579.15	48420.13
579.35	49034.52
579.55	48934.17
579.75	48901.40
579.96	49259.79
580.16	49341.71
580.36	48932.12
580.56	49192.21
580.76	48997.65
580.96	49657.10
581.16	49196.31
581.37	49319.18
581.57	49591.56
581.77	49632.52
581.97	49886.47
582.17	49575.18
582.37	49497.36
582.57	49550.60
582.77	50144.51
582.97	50330.88
583.18	50093.32
583.38	50412.80
583.58	49847.56
583.78	50081.03
583.98	50824.44
584.18	50263.30
584.38	50756.86
584.58	50515.20
584.78	50652.41
584.99	50939.13
585.19	50730.23
585.39	50535.68
585.59	51049.72
585.79	51117.30
585.99	50953.46
586.19	51356.91
586.39	51424.50
586.59	51829.99
586.79	51545.33
587.00	51684.59
587.20	52104.42
587.40	51809.51
587.60	51870.95
587.80	51791.08
588.00	52466.91
588.20	52135.14
588.40	52382.94
588.60	52399.33
588.80	52020.45
589.00	52481.25
589.20	52604.13
589.40	52688.09
589.61	52630.75
589.81	52511.97
